Labels	APTMS_Br15_1M_1MHz_0	
Type	Time Scan	
Comment		
Start	0.00	
Stop	999.511720	
Step	0.48828125	
Fixed/Offset	 	
XAxis	Time(ns)	
YAxis	Counts	

0.00	0.00000000E+0	
0.48828125	0.00000000E+0	
0.97656250	0.00000000E+0	
1.4648438	0.00000000E+0	
1.9531250	0.00000000E+0	
2.4414063	0.00000000E+0	
2.9296875	0.00000000E+0	
3.4179688	0.00000000E+0	
3.906250	0.00000000E+0	
4.3945313	0.00000000E+0	
4.8828125	0.00000000E+0	
5.3710938	0.00000000E+0	
5.8593750	0.00000000E+0	
6.3476563	0.00000000E+0	
6.8359375	0.00000000E+0	
7.3242188	0.00000000E+0	
7.81250	0.00000000E+0	
8.3007813	0.00000000E+0	
8.7890625	0.00000000E+0	
9.2773438	0.00000000E+0	
9.7656250	0.00000000E+0	
10.253906	0.00000000E+0	
10.742188	0.00000000E+0	
11.230469	0.00000000E+0	
11.718750	0.00000000E+0	
12.207031	0.00000000E+0	
12.695313	0.00000000E+0	
13.183594	0.00000000E+0	
13.671875	0.00000000E+0	
14.160156	0.00000000E+0	
14.648438	0.00000000E+0	
15.136719	0.00000000E+0	
15.6250	0.00000000E+0	
16.113281	0.00000000E+0	
16.601563	0.00000000E+0	
17.089844	0.00000000E+0	
17.578125	0.00000000E+0	
18.066406	0.00000000E+0	
18.554688	0.00000000E+0	
19.042969	0.00000000E+0	
19.531250	0.00000000E+0	
20.019531	0.00000000E+0	
20.507813	0.00000000E+0	
20.996094	0.00000000E+0	
21.484375	0.00000000E+0	
21.972656	0.00000000E+0	
22.460938	0.00000000E+0	
22.949219	0.00000000E+0	
23.43750	0.00000000E+0	
23.925781	0.00000000E+0	
24.414063	0.00000000E+0	
24.902344	0.00000000E+0	
25.390625	0.00000000E+0	
25.878906	0.00000000E+0	
26.367188	0.00000000E+0	
26.855469	0.00000000E+0	
27.343750	0.00000000E+0	
27.832031	0.00000000E+0	
28.320313	0.00000000E+0	
28.808594	0.00000000E+0	
29.296875	0.00000000E+0	
29.785156	3.20000000E+1	
30.273438	1.02000000E+2	
30.761719	1.00000000E+2	
31.250	7.40000000E+1	
31.738281	6.80000000E+1	
32.226563	8.00000000E+1	
32.714844	6.60000000E+1	
33.203125	5.30000000E+1	
33.691406	5.60000000E+1	
34.179688	6.30000000E+1	
34.667969	6.70000000E+1	
35.156250	5.60000000E+1	
35.644531	5.70000000E+1	
36.132813	4.90000000E+1	
36.621094	5.90000000E+1	
37.109375	4.40000000E+1	
37.597656	5.80000000E+1	
38.085938	6.60000000E+1	
38.574219	4.90000000E+1	
39.06250	5.70000000E+1	
39.550781	6.00000000E+1	
40.039063	6.70000000E+1	
40.527344	4.50000000E+1	
41.015625	5.80000000E+1	
41.503906	6.30000000E+1	
41.992188	4.90000000E+1	
42.480469	5.80000000E+1	
42.968750	6.30000000E+1	
43.457031	5.10000000E+1	
43.945313	5.40000000E+1	
44.433594	4.70000000E+1	
44.921875	5.10000000E+1	
45.410156	5.60000000E+1	
45.898438	4.60000000E+1	
46.386719	6.30000000E+1	
46.8750	5.90000000E+1	
47.363281	4.00000000E+1	
47.851563	5.70000000E+1	
48.339844	5.60000000E+1	
48.828125	6.90000000E+1	
49.316406	9.50000000E+1	
49.804688	1.67000000E+2	
50.292969	2.21000000E+2	
50.781250	2.62000000E+2	
51.269531	2.46000000E+2	
51.757813	2.27000000E+2	
52.246094	2.16000000E+2	
52.734375	2.39000000E+2	
53.222656	2.49000000E+2	
53.710938	2.42000000E+2	
54.199219	2.28000000E+2	
54.68750	2.34000000E+2	
55.175781	2.13000000E+2	
55.664063	2.08000000E+2	
56.152344	2.15000000E+2	
56.640625	2.15000000E+2	
57.128906	1.96000000E+2	
57.617188	2.52000000E+2	
58.105469	2.09000000E+2	
58.593750	1.99000000E+2	
59.082031	2.01000000E+2	
59.570313	2.12000000E+2	
60.058594	2.11000000E+2	
60.546875	2.29000000E+2	
61.035156	2.06000000E+2	
61.523438	2.09000000E+2	
62.011719	1.80000000E+2	
62.50	1.73000000E+2	
62.988281	2.12000000E+2	
63.476563	2.18000000E+2	
63.964844	2.00000000E+2	
64.453125	2.05000000E+2	
64.941406	1.95000000E+2	
65.429688	1.99000000E+2	
65.917969	2.32000000E+2	
66.406250	1.90000000E+2	
66.894531	2.03000000E+2	
67.382813	1.93000000E+2	
67.871094	2.10000000E+2	
68.359375	2.00000000E+2	
68.847656	1.96000000E+2	
69.335938	1.91000000E+2	
69.824219	2.08000000E+2	
70.31250	2.09000000E+2	
70.800781	2.03000000E+2	
71.289063	2.07000000E+2	
71.777344	1.89000000E+2	
72.265625	2.00000000E+2	
72.753906	1.56000000E+2	
73.242188	2.06000000E+2	
73.730469	1.90000000E+2	
74.218750	1.92000000E+2	
74.707031	1.93000000E+2	
75.195313	2.17000000E+2	
75.683594	1.85000000E+2	
76.171875	1.55000000E+2	
76.660156	2.08000000E+2	
77.148438	1.92000000E+2	
77.636719	1.86000000E+2	
78.1250	1.67000000E+2	
78.613281	1.82000000E+2	
79.101563	1.83000000E+2	
79.589844	1.82000000E+2	
80.078125	1.70000000E+2	
80.566406	1.69000000E+2	
81.054688	2.07000000E+2	
81.542969	2.01000000E+2	
82.031250	1.86000000E+2	
82.519531	2.03000000E+2	
83.007813	1.83000000E+2	
83.496094	1.90000000E+2	
83.984375	1.75000000E+2	
84.472656	2.13000000E+2	
84.960938	1.82000000E+2	
85.449219	1.83000000E+2	
85.93750	1.69000000E+2	
86.425781	1.77000000E+2	
86.914063	2.00000000E+2	
87.402344	2.16000000E+2	
87.890625	1.93000000E+2	
88.378906	1.78000000E+2	
88.867188	1.72000000E+2	
89.355469	1.94000000E+2	
89.843750	1.75000000E+2	
90.332031	1.72000000E+2	
90.820313	1.78000000E+2	
91.308594	1.73000000E+2	
91.796875	1.96000000E+2	
92.285156	1.57000000E+2	
92.773438	1.68000000E+2	
93.261719	1.82000000E+2	
93.750	1.69000000E+2	
94.238281	2.01000000E+2	
94.726563	1.94000000E+2	
95.214844	2.00000000E+2	
95.703125	1.96000000E+2	
96.191406	2.02000000E+2	
96.679688	1.84000000E+2	
97.167969	1.80000000E+2	
97.656250	1.79000000E+2	
98.144531	1.93000000E+2	
98.632813	1.67000000E+2	
99.121094	1.68000000E+2	
99.609375	1.81000000E+2	
100.097660	1.75000000E+2	
100.585940	1.96000000E+2	
101.074220	1.75000000E+2	
101.562500	1.81000000E+2	
102.050780	1.75000000E+2	
102.539060	1.79000000E+2	
103.027340	1.50000000E+2	
103.515630	1.83000000E+2	
104.003910	1.64000000E+2	
104.492190	1.88000000E+2	
104.980470	1.90000000E+2	
105.468750	1.88000000E+2	
105.95700	1.79000000E+2	
106.445310	1.86000000E+2	
106.933590	1.62000000E+2	
107.421880	1.69000000E+2	
107.910160	1.99000000E+2	
108.398440	1.72000000E+2	
108.886720	1.75000000E+2	
109.37500	1.80000000E+2	
109.863280	1.91000000E+2	
110.351560	1.89000000E+2	
110.839840	1.89000000E+2	
111.328130	1.71000000E+2	
111.816410	1.63000000E+2	
112.304690	1.57000000E+2	
112.79300	1.88000000E+2	
113.281250	1.91000000E+2	
113.769530	1.72000000E+2	
114.257810	1.71000000E+2	
114.746090	1.65000000E+2	
115.234380	1.81000000E+2	
115.722660	1.86000000E+2	
116.210940	1.88000000E+2	
116.699220	1.59000000E+2	
117.187500	1.66000000E+2	
117.675780	1.79000000E+2	
118.164060	1.78000000E+2	
118.652340	1.76000000E+2	
119.140630	1.72000000E+2	
119.628910	1.73000000E+2	
120.117190	1.66000000E+2	
120.605470	1.49000000E+2	
121.093750	1.65000000E+2	
121.58200	1.73000000E+2	
122.070310	1.75000000E+2	
122.558590	1.78000000E+2	
123.046880	1.55000000E+2	
123.535160	1.67000000E+2	
124.023440	1.75000000E+2	
124.511720	2.07000000E+2	
125.00	1.79000000E+2	
125.488280	1.70000000E+2	
125.976560	1.71000000E+2	
126.464840	1.92000000E+2	
126.953130	1.91000000E+2	
127.441410	1.80000000E+2	
127.929690	1.63000000E+2	
128.41800	1.55000000E+2	
128.906250	1.71000000E+2	
129.394530	1.57000000E+2	
129.882810	1.82000000E+2	
130.371090	1.49000000E+2	
130.859380	1.77000000E+2	
131.347660	1.56000000E+2	
131.835940	1.79000000E+2	
132.324220	1.60000000E+2	
132.812500	1.71000000E+2	
133.300780	1.61000000E+2	
133.789060	1.83000000E+2	
134.277340	1.67000000E+2	
134.765630	1.54000000E+2	
135.253910	1.60000000E+2	
135.742190	1.49000000E+2	
136.230470	1.66000000E+2	
136.718750	1.67000000E+2	
137.20700	1.52000000E+2	
137.695310	1.65000000E+2	
138.183590	1.65000000E+2	
138.671880	1.63000000E+2	
139.160160	1.80000000E+2	
139.648440	1.62000000E+2	
140.136720	1.58000000E+2	
140.62500	1.66000000E+2	
141.113280	1.74000000E+2	
141.601560	1.59000000E+2	
142.089840	1.80000000E+2	
142.578130	1.53000000E+2	
143.066410	1.73000000E+2	
143.554690	1.61000000E+2	
144.04300	1.56000000E+2	
144.531250	1.67000000E+2	
145.019530	1.65000000E+2	
145.507810	1.82000000E+2	
145.996090	1.73000000E+2	
146.484380	1.68000000E+2	
146.972660	1.65000000E+2	
147.460940	1.63000000E+2	
147.949220	1.73000000E+2	
148.437500	1.70000000E+2	
148.925780	1.71000000E+2	
149.414060	1.85000000E+2	
149.902340	1.56000000E+2	
150.390630	1.61000000E+2	
150.878910	1.63000000E+2	
151.367190	1.72000000E+2	
151.855470	1.69000000E+2	
152.343750	1.72000000E+2	
152.83200	1.63000000E+2	
153.320310	1.74000000E+2	
153.808590	1.55000000E+2	
154.296880	1.74000000E+2	
154.785160	1.51000000E+2	
155.273440	1.57000000E+2	
155.761720	1.67000000E+2	
156.2500	1.49000000E+2	
156.738280	1.70000000E+2	
157.226560	1.56000000E+2	
157.714840	1.74000000E+2	
158.203130	1.74000000E+2	
158.691410	1.76000000E+2	
159.179690	1.54000000E+2	
159.66800	1.53000000E+2	
160.156250	1.80000000E+2	
160.644530	1.76000000E+2	
161.132810	1.68000000E+2	
161.621090	1.68000000E+2	
162.109380	1.86000000E+2	
162.597660	1.59000000E+2	
163.085940	1.81000000E+2	
163.574220	1.70000000E+2	
164.062500	1.62000000E+2	
164.550780	1.87000000E+2	
165.039060	1.77000000E+2	
165.527340	1.34000000E+2	
166.015630	1.69000000E+2	
166.503910	1.49000000E+2	
166.992190	1.45000000E+2	
167.480470	1.88000000E+2	
167.968750	1.66000000E+2	
168.45700	1.61000000E+2	
168.945310	1.72000000E+2	
169.433590	1.67000000E+2	
169.921880	1.62000000E+2	
170.410160	1.60000000E+2	
170.898440	1.56000000E+2	
171.386720	1.55000000E+2	
171.87500	1.79000000E+2	
172.363280	1.72000000E+2	
172.851560	1.46000000E+2	
173.339840	1.55000000E+2	
173.828130	1.72000000E+2	
174.316410	1.65000000E+2	
174.804690	1.44000000E+2	
175.29300	1.66000000E+2	
175.781250	1.62000000E+2	
176.269530	1.61000000E+2	
176.757810	1.84000000E+2	
177.246090	1.39000000E+2	
177.734380	1.59000000E+2	
178.222660	1.55000000E+2	
178.710940	1.87000000E+2	
179.199220	1.53000000E+2	
179.687500	1.82000000E+2	
180.175780	1.33000000E+2	
180.664060	1.48000000E+2	
181.152340	1.68000000E+2	
181.640630	1.49000000E+2	
182.128910	1.52000000E+2	
182.617190	1.52000000E+2	
183.105470	1.53000000E+2	
183.593750	1.38000000E+2	
184.08200	1.45000000E+2	
184.570310	1.64000000E+2	
185.058590	1.61000000E+2	
185.546880	1.43000000E+2	
186.035160	1.54000000E+2	
186.523440	1.37000000E+2	
187.011720	1.54000000E+2	
187.500	1.57000000E+2	
187.988280	1.58000000E+2	
188.476560	1.48000000E+2	
188.964840	1.76000000E+2	
189.453130	1.61000000E+2	
189.941410	1.65000000E+2	
190.429690	1.57000000E+2	
190.91800	1.39000000E+2	
191.406250	1.46000000E+2	
191.894530	1.43000000E+2	
192.382810	1.51000000E+2	
192.871090	1.53000000E+2	
193.359380	1.47000000E+2	
193.847660	1.54000000E+2	
194.335940	1.48000000E+2	
194.824220	1.49000000E+2	
195.312500	1.67000000E+2	
195.800780	1.41000000E+2	
196.289060	1.48000000E+2	
196.777340	1.63000000E+2	
197.265630	1.69000000E+2	
197.753910	1.39000000E+2	
198.242190	1.57000000E+2	
198.730470	1.77000000E+2	
199.218750	1.45000000E+2	
199.70700	1.49000000E+2	
200.195310	1.39000000E+2	
200.683590	1.54000000E+2	
201.171880	1.47000000E+2	
201.660160	1.62000000E+2	
202.148440	1.77000000E+2	
202.636720	1.54000000E+2	
203.12500	1.56000000E+2	
203.613280	1.41000000E+2	
204.101560	1.56000000E+2	
204.589840	1.43000000E+2	
205.078130	1.55000000E+2	
205.566410	1.38000000E+2	
206.054690	1.56000000E+2	
206.54300	1.67000000E+2	
207.031250	1.48000000E+2	
207.519530	1.51000000E+2	
208.007810	1.46000000E+2	
208.496090	1.33000000E+2	
208.984380	1.59000000E+2	
209.472660	1.57000000E+2	
209.960940	1.46000000E+2	
210.449220	1.50000000E+2	
210.937500	1.57000000E+2	
211.425780	1.45000000E+2	
211.914060	1.32000000E+2	
212.402340	1.31000000E+2	
212.890630	1.45000000E+2	
213.378910	1.24000000E+2	
213.867190	1.50000000E+2	
214.355470	1.34000000E+2	
214.843750	1.51000000E+2	
215.33200	1.54000000E+2	
215.820310	1.61000000E+2	
216.308590	1.34000000E+2	
216.796880	1.72000000E+2	
217.285160	1.49000000E+2	
217.773440	1.37000000E+2	
218.261720	1.37000000E+2	
218.7500	1.54000000E+2	
219.238280	1.37000000E+2	
219.726560	1.61000000E+2	
220.214840	1.56000000E+2	
220.703130	1.61000000E+2	
221.191410	1.64000000E+2	
221.679690	1.65000000E+2	
222.16800	1.24000000E+2	
222.656250	1.40000000E+2	
223.144530	1.52000000E+2	
223.632810	1.37000000E+2	
224.121090	1.56000000E+2	
224.609380	1.51000000E+2	
225.097660	1.37000000E+2	
225.585940	1.44000000E+2	
226.074220	1.51000000E+2	
226.562500	1.61000000E+2	
227.050780	1.41000000E+2	
227.539060	1.32000000E+2	
228.027340	1.28000000E+2	
228.515630	1.46000000E+2	
229.003910	1.52000000E+2	
229.492190	1.50000000E+2	
229.980470	1.53000000E+2	
230.468750	1.36000000E+2	
230.95700	1.34000000E+2	
231.445310	1.56000000E+2	
231.933590	1.33000000E+2	
232.421880	1.25000000E+2	
232.910160	1.64000000E+2	
233.398440	1.39000000E+2	
233.886720	1.61000000E+2	
234.37500	1.46000000E+2	
234.863280	1.57000000E+2	
235.351560	1.56000000E+2	
235.839840	1.57000000E+2	
236.328130	1.36000000E+2	
236.816410	1.44000000E+2	
237.304690	1.45000000E+2	
237.79300	1.46000000E+2	
238.281250	1.41000000E+2	
238.769530	1.30000000E+2	
239.257810	1.48000000E+2	
239.746090	1.41000000E+2	
240.234380	1.35000000E+2	
240.722660	1.31000000E+2	
241.210940	1.45000000E+2	
241.699220	1.59000000E+2	
242.187500	1.53000000E+2	
242.675780	1.53000000E+2	
243.164060	1.42000000E+2	
243.652340	1.45000000E+2	
244.140630	1.44000000E+2	
244.628910	1.59000000E+2	
245.117190	1.44000000E+2	
245.605470	1.27000000E+2	
246.093750	1.29000000E+2	
246.58200	1.73000000E+2	
247.070310	1.47000000E+2	
247.558590	1.36000000E+2	
248.046880	1.37000000E+2	
248.535160	1.62000000E+2	
249.023440	1.48000000E+2	
249.511720	1.37000000E+2	
250.00	1.46000000E+2	
250.488280	1.55000000E+2	
250.976560	1.57000000E+2	
251.464840	1.50000000E+2	
251.953130	1.40000000E+2	
252.441410	1.35000000E+2	
252.929690	1.55000000E+2	
253.41800	1.55000000E+2	
253.906250	1.56000000E+2	
254.394530	1.39000000E+2	
254.882810	1.34000000E+2	
255.371090	1.28000000E+2	
255.859380	1.38000000E+2	
256.347660	1.54000000E+2	
256.835940	1.28000000E+2	
257.324220	1.18000000E+2	
257.812500	1.15000000E+2	
258.300780	1.30000000E+2	
258.789060	1.33000000E+2	
259.277340	1.38000000E+2	
259.765630	1.56000000E+2	
260.253910	1.25000000E+2	
260.742190	1.44000000E+2	
261.230470	1.31000000E+2	
261.718750	1.54000000E+2	
262.20700	1.35000000E+2	
262.695310	1.50000000E+2	
263.183590	1.28000000E+2	
263.671880	1.44000000E+2	
264.160160	1.22000000E+2	
264.648440	1.33000000E+2	
265.136720	1.42000000E+2	
265.62500	1.39000000E+2	
266.113280	1.38000000E+2	
266.601560	1.20000000E+2	
267.089840	1.56000000E+2	
267.578130	1.54000000E+2	
268.066410	1.38000000E+2	
268.554690	1.38000000E+2	
269.04300	1.27000000E+2	
269.531250	1.24000000E+2	
270.019530	1.19000000E+2	
270.507810	1.35000000E+2	
270.996090	1.35000000E+2	
271.484380	1.46000000E+2	
271.972660	1.59000000E+2	
272.460940	1.29000000E+2	
272.949220	1.66000000E+2	
273.437500	1.35000000E+2	
273.925780	1.22000000E+2	
274.414060	1.33000000E+2	
274.902340	1.31000000E+2	
275.390630	1.34000000E+2	
275.878910	1.36000000E+2	
276.367190	1.35000000E+2	
276.855470	1.42000000E+2	
277.343750	1.46000000E+2	
277.83200	1.52000000E+2	
278.320310	1.22000000E+2	
278.808590	1.47000000E+2	
279.296880	1.33000000E+2	
279.785160	1.08000000E+2	
280.273440	1.36000000E+2	
280.761720	1.50000000E+2	
281.2500	1.73000000E+2	
281.738280	1.48000000E+2	
282.226560	1.43000000E+2	
282.714840	1.38000000E+2	
283.203130	1.27000000E+2	
283.691410	1.45000000E+2	
284.179690	1.31000000E+2	
284.66800	1.15000000E+2	
285.156250	1.36000000E+2	
285.644530	1.20000000E+2	
286.132810	1.29000000E+2	
286.621090	1.56000000E+2	
287.109380	1.41000000E+2	
287.597660	1.63000000E+2	
288.085940	1.45000000E+2	
288.574220	1.39000000E+2	
289.062500	1.30000000E+2	
289.550780	1.24000000E+2	
290.039060	1.46000000E+2	
290.527340	1.34000000E+2	
291.015630	1.24000000E+2	
291.503910	1.41000000E+2	
291.992190	1.55000000E+2	
292.480470	1.28000000E+2	
292.968750	1.30000000E+2	
293.45700	1.07000000E+2	
293.945310	1.43000000E+2	
294.433590	1.30000000E+2	
294.921880	1.52000000E+2	
295.410160	1.40000000E+2	
295.898440	1.25000000E+2	
296.386720	1.34000000E+2	
296.87500	1.42000000E+2	
297.363280	1.33000000E+2	
297.851560	1.22000000E+2	
298.339840	1.50000000E+2	
298.828130	1.37000000E+2	
299.316410	1.28000000E+2	
299.804690	1.38000000E+2	
300.29300	1.38000000E+2	
300.781250	1.54000000E+2	
301.269530	1.27000000E+2	
301.757810	1.24000000E+2	
302.246090	1.45000000E+2	
302.734380	1.31000000E+2	
303.222660	1.37000000E+2	
303.710940	1.25000000E+2	
304.199220	1.41000000E+2	
304.687500	1.42000000E+2	
305.175780	1.28000000E+2	
305.664060	1.36000000E+2	
306.152340	1.26000000E+2	
306.640630	1.33000000E+2	
307.128910	1.38000000E+2	
307.617190	1.50000000E+2	
308.105470	1.18000000E+2	
308.593750	1.26000000E+2	
309.08200	1.42000000E+2	
309.570310	1.26000000E+2	
310.058590	1.43000000E+2	
310.546880	1.43000000E+2	
311.035160	1.33000000E+2	
311.523440	1.21000000E+2	
312.011720	1.01000000E+2	
312.500	1.40000000E+2	
312.988280	1.47000000E+2	
313.476560	1.28000000E+2	
313.964840	1.37000000E+2	
314.453130	1.14000000E+2	
314.941410	1.34000000E+2	
315.429690	1.56000000E+2	
315.91800	1.17000000E+2	
316.406250	1.34000000E+2	
316.894530	1.32000000E+2	
317.382810	1.47000000E+2	
317.871090	1.42000000E+2	
318.359380	1.32000000E+2	
318.847660	1.26000000E+2	
319.335940	1.25000000E+2	
319.824220	1.26000000E+2	
320.312500	1.45000000E+2	
320.800780	1.29000000E+2	
321.289060	1.28000000E+2	
321.777340	1.12000000E+2	
322.265630	1.47000000E+2	
322.753910	1.25000000E+2	
323.242190	1.05000000E+2	
323.730470	1.23000000E+2	
324.218750	1.34000000E+2	
324.70700	1.43000000E+2	
325.195310	1.31000000E+2	
325.683590	1.61000000E+2	
326.171880	1.41000000E+2	
326.660160	1.22000000E+2	
327.148440	1.22000000E+2	
327.636720	1.03000000E+2	
328.12500	1.26000000E+2	
328.613280	1.32000000E+2	
329.101560	1.43000000E+2	
329.589840	1.26000000E+2	
330.078130	1.20000000E+2	
330.566410	1.35000000E+2	
331.054690	1.07000000E+2	
331.54300	1.52000000E+2	
332.031250	1.30000000E+2	
332.519530	1.20000000E+2	
333.007810	1.47000000E+2	
333.496090	1.47000000E+2	
333.984380	1.36000000E+2	
334.472660	1.47000000E+2	
334.960940	1.11000000E+2	
335.449220	1.30000000E+2	
335.937500	1.32000000E+2	
336.425780	1.39000000E+2	
336.914060	1.30000000E+2	
337.402340	1.19000000E+2	
337.890630	1.08000000E+2	
338.378910	1.25000000E+2	
338.867190	1.15000000E+2	
339.355470	1.12000000E+2	
339.843750	1.14000000E+2	
340.33200	1.36000000E+2	
340.820310	1.19000000E+2	
341.308590	1.46000000E+2	
341.796880	1.15000000E+2	
342.285160	1.32000000E+2	
342.773440	1.09000000E+2	
343.261720	1.30000000E+2	
343.7500	1.23000000E+2	
344.238280	1.22000000E+2	
344.726560	1.07000000E+2	
345.214840	1.27000000E+2	
345.703130	1.14000000E+2	
346.191410	1.18000000E+2	
346.679690	1.27000000E+2	
347.16800	1.18000000E+2	
347.656250	1.22000000E+2	
348.144530	1.04000000E+2	
348.632810	1.31000000E+2	
349.121090	1.16000000E+2	
349.609380	1.22000000E+2	
350.097660	1.23000000E+2	
350.585940	1.46000000E+2	
351.074220	1.26000000E+2	
351.562500	1.11000000E+2	
352.050780	1.15000000E+2	
352.539060	1.34000000E+2	
353.027340	1.43000000E+2	
353.515630	1.20000000E+2	
354.003910	1.24000000E+2	
354.492190	1.18000000E+2	
354.980470	1.27000000E+2	
355.468750	1.23000000E+2	
355.95700	1.33000000E+2	
356.445310	1.21000000E+2	
356.933590	1.20000000E+2	
357.421880	1.27000000E+2	
357.910160	1.23000000E+2	
358.398440	1.30000000E+2	
358.886720	1.39000000E+2	
359.37500	1.12000000E+2	
359.863280	1.16000000E+2	
360.351560	1.29000000E+2	
360.839840	1.28000000E+2	
361.328130	1.18000000E+2	
361.816410	1.05000000E+2	
362.304690	1.33000000E+2	
362.79300	1.37000000E+2	
363.281250	1.24000000E+2	
363.769530	1.28000000E+2	
364.257810	1.31000000E+2	
364.746090	1.34000000E+2	
365.234380	1.29000000E+2	
365.722660	1.30000000E+2	
366.210940	1.05000000E+2	
366.699220	1.17000000E+2	
367.187500	1.17000000E+2	
367.675780	1.21000000E+2	
368.164060	1.22000000E+2	
368.652340	1.43000000E+2	
369.140630	1.45000000E+2	
369.628910	1.06000000E+2	
370.117190	1.41000000E+2	
370.605470	1.30000000E+2	
371.093750	1.25000000E+2	
371.58200	1.19000000E+2	
372.070310	1.35000000E+2	
372.558590	1.26000000E+2	
373.046880	1.09000000E+2	
373.535160	1.14000000E+2	
374.023440	1.24000000E+2	
374.511720	1.36000000E+2	
375.00	1.27000000E+2	
375.488280	1.42000000E+2	
375.976560	1.25000000E+2	
376.464840	1.12000000E+2	
376.953130	1.32000000E+2	
377.441410	1.28000000E+2	
377.929690	1.21000000E+2	
378.41800	1.04000000E+2	
378.906250	1.27000000E+2	
379.394530	1.24000000E+2	
379.882810	1.23000000E+2	
380.371090	1.32000000E+2	
380.859380	1.10000000E+2	
381.347660	1.20000000E+2	
381.835940	1.24000000E+2	
382.324220	1.16000000E+2	
382.812500	1.26000000E+2	
383.300780	1.18000000E+2	
383.789060	1.32000000E+2	
384.277340	9.10000000E+1	
384.765630	1.32000000E+2	
385.253910	8.60000000E+1	
385.742190	1.18000000E+2	
386.230470	1.05000000E+2	
386.718750	1.08000000E+2	
387.20700	1.15000000E+2	
387.695310	1.24000000E+2	
388.183590	1.09000000E+2	
388.671880	1.24000000E+2	
389.160160	1.35000000E+2	
389.648440	1.30000000E+2	
390.136720	1.19000000E+2	
390.62500	1.16000000E+2	
391.113280	1.07000000E+2	
391.601560	1.11000000E+2	
392.089840	1.17000000E+2	
392.578130	1.27000000E+2	
393.066410	1.14000000E+2	
393.554690	1.17000000E+2	
394.04300	1.27000000E+2	
394.531250	1.02000000E+2	
395.019530	1.25000000E+2	
395.507810	1.23000000E+2	
395.996090	1.12000000E+2	
396.484380	1.09000000E+2	
396.972660	1.25000000E+2	
397.460940	1.29000000E+2	
397.949220	1.17000000E+2	
398.437500	1.38000000E+2	
398.925780	1.21000000E+2	
399.414060	1.04000000E+2	
399.902340	1.10000000E+2	
400.390630	1.12000000E+2	
400.878910	1.30000000E+2	
401.367190	1.18000000E+2	
401.855470	1.22000000E+2	
402.343750	1.16000000E+2	
402.83200	1.24000000E+2	
403.320310	1.41000000E+2	
403.808590	1.19000000E+2	
404.296880	1.09000000E+2	
404.785160	1.18000000E+2	
405.273440	1.08000000E+2	
405.761720	1.30000000E+2	
406.2500	1.09000000E+2	
406.738280	1.43000000E+2	
407.226560	1.20000000E+2	
407.714840	1.17000000E+2	
408.203130	1.17000000E+2	
408.691410	1.25000000E+2	
409.179690	1.06000000E+2	
409.66800	1.02000000E+2	
410.156250	1.29000000E+2	
410.644530	1.19000000E+2	
411.132810	1.33000000E+2	
411.621090	1.26000000E+2	
412.109380	1.12000000E+2	
412.597660	1.04000000E+2	
413.085940	1.21000000E+2	
413.574220	1.26000000E+2	
414.062500	1.24000000E+2	
414.550780	1.17000000E+2	
415.039060	1.23000000E+2	
415.527340	1.06000000E+2	
416.015630	1.33000000E+2	
416.503910	1.04000000E+2	
416.992190	1.08000000E+2	
417.480470	1.31000000E+2	
417.968750	1.11000000E+2	
418.45700	1.38000000E+2	
418.945310	1.03000000E+2	
419.433590	1.11000000E+2	
419.921880	1.02000000E+2	
420.410160	1.10000000E+2	
420.898440	1.04000000E+2	
421.386720	1.30000000E+2	
421.87500	1.08000000E+2	
422.363280	1.06000000E+2	
422.851560	1.21000000E+2	
423.339840	1.06000000E+2	
423.828130	1.08000000E+2	
424.316410	9.70000000E+1	
424.804690	1.03000000E+2	
425.29300	1.32000000E+2	
425.781250	1.17000000E+2	
426.269530	1.27000000E+2	
426.757810	1.30000000E+2	
427.246090	1.06000000E+2	
427.734380	1.32000000E+2	
428.222660	1.07000000E+2	
428.710940	1.15000000E+2	
429.199220	1.40000000E+2	
429.687500	1.02000000E+2	
430.175780	1.22000000E+2	
430.664060	1.38000000E+2	
431.152340	1.24000000E+2	
431.640630	1.29000000E+2	
432.128910	1.23000000E+2	
432.617190	1.36000000E+2	
433.105470	9.10000000E+1	
433.593750	9.80000000E+1	
434.08200	1.11000000E+2	
434.570310	1.09000000E+2	
435.058590	1.20000000E+2	
435.546880	1.10000000E+2	
436.035160	1.05000000E+2	
436.523440	1.14000000E+2	
437.011720	1.26000000E+2	
437.500	1.00000000E+2	
437.988280	1.04000000E+2	
438.476560	1.31000000E+2	
438.964840	1.09000000E+2	
439.453130	1.20000000E+2	
439.941410	1.17000000E+2	
440.429690	9.00000000E+1	
440.91800	8.70000000E+1	
441.406250	1.12000000E+2	
441.894530	1.28000000E+2	
442.382810	9.00000000E+1	
442.871090	9.90000000E+1	
443.359380	9.70000000E+1	
443.847660	1.12000000E+2	
444.335940	1.12000000E+2	
444.824220	1.26000000E+2	
445.312500	1.22000000E+2	
445.800780	1.20000000E+2	
446.289060	1.02000000E+2	
446.777340	1.15000000E+2	
447.265630	1.11000000E+2	
447.753910	1.07000000E+2	
448.242190	9.90000000E+1	
448.730470	1.03000000E+2	
449.218750	1.16000000E+2	
449.70700	1.06000000E+2	
450.195310	1.12000000E+2	
450.683590	1.17000000E+2	
451.171880	1.22000000E+2	
451.660160	1.14000000E+2	
452.148440	1.24000000E+2	
452.636720	9.80000000E+1	
453.12500	1.08000000E+2	
453.613280	1.16000000E+2	
454.101560	1.13000000E+2	
454.589840	8.60000000E+1	
455.078130	1.19000000E+2	
455.566410	1.42000000E+2	
456.054690	1.05000000E+2	
456.54300	1.12000000E+2	
457.031250	1.18000000E+2	
457.519530	1.21000000E+2	
458.007810	9.50000000E+1	
458.496090	1.13000000E+2	
458.984380	1.04000000E+2	
459.472660	1.26000000E+2	
459.960940	1.16000000E+2	
460.449220	1.20000000E+2	
460.937500	1.04000000E+2	
461.425780	7.90000000E+1	
461.914060	1.14000000E+2	
462.402340	1.23000000E+2	
462.890630	1.20000000E+2	
463.378910	1.04000000E+2	
463.867190	1.06000000E+2	
464.355470	1.27000000E+2	
464.843750	1.08000000E+2	
465.33200	1.23000000E+2	
465.820310	9.90000000E+1	
466.308590	1.09000000E+2	
466.796880	9.80000000E+1	
467.285160	1.08000000E+2	
467.773440	9.90000000E+1	
468.261720	9.60000000E+1	
468.7500	1.17000000E+2	
469.238280	9.30000000E+1	
469.726560	1.09000000E+2	
470.214840	1.06000000E+2	
470.703130	1.04000000E+2	
471.191410	9.70000000E+1	
471.679690	1.14000000E+2	
472.16800	1.11000000E+2	
472.656250	1.02000000E+2	
473.144530	1.04000000E+2	
473.632810	1.20000000E+2	
474.121090	9.90000000E+1	
474.609380	1.03000000E+2	
475.097660	1.25000000E+2	
475.585940	1.03000000E+2	
476.074220	9.60000000E+1	
476.562500	1.15000000E+2	
477.050780	1.15000000E+2	
477.539060	8.90000000E+1	
478.027340	9.40000000E+1	
478.515630	1.14000000E+2	
479.003910	1.12000000E+2	
479.492190	1.01000000E+2	
479.980470	9.50000000E+1	
480.468750	1.16000000E+2	
480.95700	1.08000000E+2	
481.445310	9.90000000E+1	
481.933590	1.09000000E+2	
482.421880	9.60000000E+1	
482.910160	1.07000000E+2	
483.398440	1.17000000E+2	
483.886720	9.70000000E+1	
484.37500	1.09000000E+2	
484.863280	8.30000000E+1	
485.351560	9.30000000E+1	
485.839840	1.06000000E+2	
486.328130	1.05000000E+2	
486.816410	9.50000000E+1	
487.304690	9.50000000E+1	
487.79300	9.10000000E+1	
488.281250	9.20000000E+1	
488.769530	1.11000000E+2	
489.257810	1.22000000E+2	
489.746090	1.05000000E+2	
490.234380	9.60000000E+1	
490.722660	8.90000000E+1	
491.210940	9.20000000E+1	
491.699220	8.80000000E+1	
492.187500	9.90000000E+1	
492.675780	1.02000000E+2	
493.164060	9.70000000E+1	
493.652340	1.27000000E+2	
494.140630	9.30000000E+1	
494.628910	1.25000000E+2	
495.117190	1.14000000E+2	
495.605470	9.20000000E+1	
496.093750	1.02000000E+2	
496.58200	1.02000000E+2	
497.070310	9.90000000E+1	
497.558590	8.80000000E+1	
498.046880	1.01000000E+2	
498.535160	9.50000000E+1	
499.023440	1.03000000E+2	
499.511720	9.30000000E+1	
500.00	1.11000000E+2	
500.488280	1.03000000E+2	
500.976560	1.29000000E+2	
501.464840	1.05000000E+2	
501.953130	1.05000000E+2	
502.441410	1.01000000E+2	
502.929690	1.21000000E+2	
503.41800	1.23000000E+2	
503.906250	1.19000000E+2	
504.394530	8.90000000E+1	
504.882810	1.04000000E+2	
505.371090	1.02000000E+2	
505.859380	1.15000000E+2	
506.347660	9.80000000E+1	
506.835940	1.23000000E+2	
507.324220	9.50000000E+1	
507.812500	1.23000000E+2	
508.300780	1.04000000E+2	
508.789060	1.11000000E+2	
509.277340	1.21000000E+2	
509.765630	8.70000000E+1	
510.253910	8.60000000E+1	
510.742190	1.08000000E+2	
511.230470	1.12000000E+2	
511.718750	1.11000000E+2	
512.20700	9.00000000E+1	
512.695310	1.09000000E+2	
513.183590	1.08000000E+2	
513.671880	1.00000000E+2	
514.160160	9.40000000E+1	
514.648440	9.90000000E+1	
515.136720	1.06000000E+2	
515.62500	9.40000000E+1	
516.113280	1.25000000E+2	
516.601560	1.00000000E+2	
517.089840	8.10000000E+1	
517.578130	1.05000000E+2	
518.066410	1.25000000E+2	
518.554690	1.02000000E+2	
519.04300	9.60000000E+1	
519.531250	1.12000000E+2	
520.019530	1.15000000E+2	
520.507810	9.00000000E+1	
520.996090	8.30000000E+1	
521.484380	8.30000000E+1	
521.972660	9.50000000E+1	
522.460940	1.00000000E+2	
522.949220	9.00000000E+1	
523.437500	8.20000000E+1	
523.925780	1.04000000E+2	
524.414060	9.70000000E+1	
524.902340	1.09000000E+2	
525.390630	9.90000000E+1	
525.878910	1.00000000E+2	
526.367190	9.80000000E+1	
526.855470	1.14000000E+2	
527.343750	9.70000000E+1	
527.83200	7.90000000E+1	
528.320310	1.12000000E+2	
528.808590	9.20000000E+1	
529.296880	1.05000000E+2	
529.785160	8.30000000E+1	
530.273440	8.00000000E+1	
530.761720	1.05000000E+2	
531.2500	1.05000000E+2	
531.738280	9.70000000E+1	
532.226560	9.80000000E+1	
532.714840	8.70000000E+1	
533.203130	1.00000000E+2	
533.691410	8.40000000E+1	
534.179690	1.05000000E+2	
534.66800	9.10000000E+1	
535.156250	9.40000000E+1	
535.644530	1.11000000E+2	
536.132810	9.20000000E+1	
536.621090	1.28000000E+2	
537.109380	1.07000000E+2	
537.597660	1.00000000E+2	
538.085940	9.20000000E+1	
538.574220	8.70000000E+1	
539.062500	1.04000000E+2	
539.550780	1.06000000E+2	
540.039060	1.15000000E+2	
540.527340	9.70000000E+1	
541.015630	1.19000000E+2	
541.503910	1.17000000E+2	
541.992190	1.01000000E+2	
542.480470	7.70000000E+1	
542.968750	1.04000000E+2	
543.45700	1.08000000E+2	
543.945310	1.04000000E+2	
544.433590	7.80000000E+1	
544.921880	1.04000000E+2	
545.410160	1.01000000E+2	
545.898440	9.40000000E+1	
546.386720	8.40000000E+1	
546.87500	9.20000000E+1	
547.363280	9.20000000E+1	
547.851560	1.11000000E+2	
548.339840	1.01000000E+2	
548.828130	9.90000000E+1	
549.316410	1.01000000E+2	
549.804690	9.00000000E+1	
550.29300	9.50000000E+1	
550.781250	9.90000000E+1	
551.269530	1.00000000E+2	
551.757810	1.13000000E+2	
552.246090	7.80000000E+1	
552.734380	1.20000000E+2	
553.222660	9.90000000E+1	
553.710940	9.50000000E+1	
554.199220	1.03000000E+2	
554.687500	1.09000000E+2	
555.175780	1.06000000E+2	
555.664060	9.50000000E+1	
556.152340	9.00000000E+1	
556.640630	1.06000000E+2	
557.128910	9.40000000E+1	
557.617190	1.10000000E+2	
558.105470	1.09000000E+2	
558.593750	9.40000000E+1	
559.08200	1.05000000E+2	
559.570310	9.60000000E+1	
560.058590	9.30000000E+1	
560.546880	9.10000000E+1	
561.035160	9.20000000E+1	
561.523440	9.60000000E+1	
562.011720	9.60000000E+1	
562.500	8.40000000E+1	
562.988280	8.60000000E+1	
563.476560	1.11000000E+2	
563.964840	1.06000000E+2	
564.453130	1.02000000E+2	
564.941410	8.90000000E+1	
565.429690	9.70000000E+1	
565.91800	9.50000000E+1	
566.406250	8.40000000E+1	
566.894530	7.40000000E+1	
567.382810	9.20000000E+1	
567.871090	9.70000000E+1	
568.359380	9.40000000E+1	
568.847660	9.80000000E+1	
569.335940	1.05000000E+2	
569.824220	1.22000000E+2	
570.312500	9.10000000E+1	
570.800780	8.30000000E+1	
571.289060	9.20000000E+1	
571.777340	1.05000000E+2	
572.265630	8.90000000E+1	
572.753910	1.13000000E+2	
573.242190	1.00000000E+2	
573.730470	1.14000000E+2	
574.218750	8.80000000E+1	
574.70700	8.60000000E+1	
575.195310	9.30000000E+1	
575.683590	7.40000000E+1	
576.171880	9.10000000E+1	
576.660160	9.70000000E+1	
577.148440	9.70000000E+1	
577.636720	1.15000000E+2	
578.12500	9.30000000E+1	
578.613280	9.60000000E+1	
579.101560	8.80000000E+1	
579.589840	1.06000000E+2	
580.078130	9.90000000E+1	
580.566410	9.70000000E+1	
581.054690	1.03000000E+2	
581.54300	1.00000000E+2	
582.031250	8.30000000E+1	
582.519530	8.20000000E+1	
583.007810	9.30000000E+1	
583.496090	1.10000000E+2	
583.984380	1.11000000E+2	
584.472660	9.40000000E+1	
584.960940	7.60000000E+1	
585.449220	8.00000000E+1	
585.937500	9.60000000E+1	
586.425780	9.10000000E+1	
586.914060	1.02000000E+2	
587.402340	8.50000000E+1	
587.890630	1.14000000E+2	
588.378910	9.60000000E+1	
588.867190	8.50000000E+1	
589.355470	9.00000000E+1	
589.843750	1.01000000E+2	
590.33200	8.80000000E+1	
590.820310	9.20000000E+1	
591.308590	9.30000000E+1	
591.796880	8.40000000E+1	
592.285160	1.08000000E+2	
592.773440	8.30000000E+1	
593.261720	8.30000000E+1	
593.7500	1.10000000E+2	
594.238280	8.60000000E+1	
594.726560	7.80000000E+1	
595.214840	9.80000000E+1	
595.703130	7.20000000E+1	
596.191410	9.00000000E+1	
596.679690	9.50000000E+1	
597.16800	9.10000000E+1	
597.656250	1.10000000E+2	
598.144530	1.00000000E+2	
598.632810	9.60000000E+1	
599.121090	9.40000000E+1	
599.609380	9.60000000E+1	
600.097660	9.40000000E+1	
600.585940	1.03000000E+2	
601.074220	9.00000000E+1	
601.562500	8.80000000E+1	
602.050780	7.20000000E+1	
602.539060	9.40000000E+1	
603.027340	1.01000000E+2	
603.515630	9.10000000E+1	
604.003910	7.80000000E+1	
604.492190	9.70000000E+1	
604.980470	9.20000000E+1	
605.468750	9.40000000E+1	
605.95700	9.40000000E+1	
606.445310	1.05000000E+2	
606.933590	1.07000000E+2	
607.421880	1.02000000E+2	
607.910160	9.00000000E+1	
608.398440	8.20000000E+1	
608.886720	8.40000000E+1	
609.37500	9.00000000E+1	
609.863280	8.60000000E+1	
610.351560	8.40000000E+1	
610.839840	8.50000000E+1	
611.328130	8.40000000E+1	
611.816410	9.40000000E+1	
612.304690	8.90000000E+1	
612.79300	1.19000000E+2	
613.281250	8.60000000E+1	
613.769530	8.50000000E+1	
614.257810	7.00000000E+1	
614.746090	1.00000000E+2	
615.234380	9.20000000E+1	
615.722660	9.10000000E+1	
616.210940	9.60000000E+1	
616.699220	1.05000000E+2	
617.187500	9.40000000E+1	
617.675780	8.50000000E+1	
618.164060	8.40000000E+1	
618.652340	7.70000000E+1	
619.140630	7.80000000E+1	
619.628910	9.30000000E+1	
620.117190	8.20000000E+1	
620.605470	9.50000000E+1	
621.093750	8.90000000E+1	
621.58200	9.70000000E+1	
622.070310	9.30000000E+1	
622.558590	8.10000000E+1	
623.046880	9.00000000E+1	
623.535160	9.00000000E+1	
624.023440	1.00000000E+2	
624.511720	1.02000000E+2	
625.00	8.80000000E+1	
625.488280	9.60000000E+1	
625.976560	6.90000000E+1	
626.464840	8.30000000E+1	
626.953130	8.60000000E+1	
627.441410	8.80000000E+1	
627.929690	8.50000000E+1	
628.41800	9.60000000E+1	
628.906250	9.00000000E+1	
629.394530	1.01000000E+2	
629.882810	8.00000000E+1	
630.371090	7.60000000E+1	
630.859380	9.60000000E+1	
631.347660	6.70000000E+1	
631.835940	1.07000000E+2	
632.324220	9.20000000E+1	
632.812500	9.00000000E+1	
633.300780	8.60000000E+1	
633.789060	8.50000000E+1	
634.277340	7.70000000E+1	
634.765630	8.10000000E+1	
635.253910	8.70000000E+1	
635.742190	8.70000000E+1	
636.230470	8.10000000E+1	
636.718750	9.80000000E+1	
637.20700	9.40000000E+1	
637.695310	7.80000000E+1	
638.183590	1.04000000E+2	
638.671880	8.10000000E+1	
639.160160	8.30000000E+1	
639.648440	9.10000000E+1	
640.136720	9.00000000E+1	
640.62500	8.90000000E+1	
641.113280	8.80000000E+1	
641.601560	8.50000000E+1	
642.089840	8.60000000E+1	
642.578130	8.40000000E+1	
643.066410	8.80000000E+1	
643.554690	7.60000000E+1	
644.04300	7.90000000E+1	
644.531250	7.80000000E+1	
645.019530	9.50000000E+1	
645.507810	8.70000000E+1	
645.996090	7.60000000E+1	
646.484380	8.10000000E+1	
646.972660	9.20000000E+1	
647.460940	6.90000000E+1	
647.949220	9.40000000E+1	
648.437500	8.80000000E+1	
648.925780	9.20000000E+1	
649.414060	9.30000000E+1	
649.902340	9.10000000E+1	
650.390630	8.60000000E+1	
650.878910	8.60000000E+1	
651.367190	7.70000000E+1	
651.855470	9.10000000E+1	
652.343750	8.40000000E+1	
652.83200	1.06000000E+2	
653.320310	7.60000000E+1	
653.808590	8.50000000E+1	
654.296880	8.20000000E+1	
654.785160	8.00000000E+1	
655.273440	9.00000000E+1	
655.761720	9.70000000E+1	
656.2500	8.00000000E+1	
656.738280	7.30000000E+1	
657.226560	9.10000000E+1	
657.714840	7.00000000E+1	
658.203130	7.70000000E+1	
658.691410	9.40000000E+1	
659.179690	8.40000000E+1	
659.66800	9.00000000E+1	
660.156250	8.90000000E+1	
660.644530	7.40000000E+1	
661.132810	8.20000000E+1	
661.621090	8.20000000E+1	
662.109380	8.30000000E+1	
662.597660	8.90000000E+1	
663.085940	7.50000000E+1	
663.574220	9.50000000E+1	
664.062500	8.30000000E+1	
664.550780	7.90000000E+1	
665.039060	8.80000000E+1	
665.527340	9.30000000E+1	
666.015630	8.80000000E+1	
666.503910	7.90000000E+1	
666.992190	7.40000000E+1	
667.480470	7.60000000E+1	
667.968750	9.70000000E+1	
668.45700	9.60000000E+1	
668.945310	7.70000000E+1	
669.433590	8.20000000E+1	
669.921880	8.90000000E+1	
670.410160	8.30000000E+1	
670.898440	8.50000000E+1	
671.386720	9.30000000E+1	
671.87500	8.00000000E+1	
672.363280	6.70000000E+1	
672.851560	8.00000000E+1	
673.339840	7.40000000E+1	
673.828130	7.90000000E+1	
674.316410	8.30000000E+1	
674.804690	8.70000000E+1	
675.29300	9.70000000E+1	
675.781250	8.00000000E+1	
676.269530	9.10000000E+1	
676.757810	7.20000000E+1	
677.246090	9.00000000E+1	
677.734380	8.00000000E+1	
678.222660	8.30000000E+1	
678.710940	8.70000000E+1	
679.199220	7.20000000E+1	
679.687500	9.30000000E+1	
680.175780	7.30000000E+1	
680.664060	9.70000000E+1	
681.152340	7.20000000E+1	
681.640630	7.10000000E+1	
682.128910	7.60000000E+1	
682.617190	8.40000000E+1	
683.105470	8.60000000E+1	
683.593750	8.60000000E+1	
684.08200	9.00000000E+1	
684.570310	7.60000000E+1	
685.058590	8.40000000E+1	
685.546880	7.10000000E+1	
686.035160	6.20000000E+1	
686.523440	7.50000000E+1	
687.011720	7.20000000E+1	
687.500	8.40000000E+1	
687.988280	9.00000000E+1	
688.476560	9.00000000E+1	
688.964840	8.00000000E+1	
689.453130	8.70000000E+1	
689.941410	7.40000000E+1	
690.429690	8.70000000E+1	
690.91800	8.20000000E+1	
691.406250	8.20000000E+1	
691.894530	8.80000000E+1	
692.382810	7.20000000E+1	
692.871090	8.30000000E+1	
693.359380	7.80000000E+1	
693.847660	8.30000000E+1	
694.335940	1.03000000E+2	
694.824220	9.40000000E+1	
695.312500	7.90000000E+1	
695.800780	7.60000000E+1	
696.289060	7.60000000E+1	
696.777340	7.00000000E+1	
697.265630	7.50000000E+1	
697.753910	6.30000000E+1	
698.242190	7.70000000E+1	
698.730470	7.60000000E+1	
699.218750	8.40000000E+1	
699.70700	8.80000000E+1	
700.195310	7.10000000E+1	
700.683590	7.30000000E+1	
701.171880	8.00000000E+1	
701.660160	7.50000000E+1	
702.148440	5.40000000E+1	
702.636720	8.80000000E+1	
703.12500	7.70000000E+1	
703.613280	8.20000000E+1	
704.101560	8.00000000E+1	
704.589840	8.00000000E+1	
705.078130	8.90000000E+1	
705.566410	7.30000000E+1	
706.054690	8.20000000E+1	
706.54300	7.90000000E+1	
707.031250	7.00000000E+1	
707.519530	8.70000000E+1	
708.007810	6.20000000E+1	
708.496090	8.00000000E+1	
708.984380	9.60000000E+1	
709.472660	8.30000000E+1	
709.960940	7.80000000E+1	
710.449220	8.80000000E+1	
710.937500	8.80000000E+1	
711.425780	7.90000000E+1	
711.914060	7.40000000E+1	
712.402340	7.80000000E+1	
712.890630	8.30000000E+1	
713.378910	9.10000000E+1	
713.867190	7.90000000E+1	
714.355470	8.00000000E+1	
714.843750	8.60000000E+1	
715.33200	7.50000000E+1	
715.820310	7.60000000E+1	
716.308590	7.40000000E+1	
716.796880	8.40000000E+1	
717.285160	7.10000000E+1	
717.773440	6.90000000E+1	
718.261720	6.20000000E+1	
718.7500	8.60000000E+1	
719.238280	7.80000000E+1	
719.726560	7.90000000E+1	
720.214840	8.90000000E+1	
720.703130	7.70000000E+1	
721.191410	7.00000000E+1	
721.679690	8.10000000E+1	
722.16800	6.80000000E+1	
722.656250	8.10000000E+1	
723.144530	8.40000000E+1	
723.632810	6.10000000E+1	
724.121090	7.90000000E+1	
724.609380	9.50000000E+1	
725.097660	8.70000000E+1	
725.585940	7.40000000E+1	
726.074220	8.60000000E+1	
726.562500	7.40000000E+1	
727.050780	7.10000000E+1	
727.539060	7.80000000E+1	
728.027340	7.80000000E+1	
728.515630	7.70000000E+1	
729.003910	9.20000000E+1	
729.492190	8.10000000E+1	
729.980470	6.30000000E+1	
730.468750	6.70000000E+1	
730.95700	8.50000000E+1	
731.445310	7.20000000E+1	
731.933590	8.10000000E+1	
732.421880	8.20000000E+1	
732.910160	7.30000000E+1	
733.398440	7.60000000E+1	
733.886720	8.50000000E+1	
734.37500	8.50000000E+1	
734.863280	8.60000000E+1	
735.351560	8.20000000E+1	
735.839840	8.10000000E+1	
736.328130	6.90000000E+1	
736.816410	8.10000000E+1	
737.304690	6.80000000E+1	
737.79300	9.80000000E+1	
738.281250	8.20000000E+1	
738.769530	8.50000000E+1	
739.257810	6.70000000E+1	
739.746090	5.80000000E+1	
740.234380	7.20000000E+1	
740.722660	7.00000000E+1	
741.210940	9.20000000E+1	
741.699220	8.00000000E+1	
742.187500	7.90000000E+1	
742.675780	7.60000000E+1	
743.164060	6.40000000E+1	
743.652340	7.90000000E+1	
744.140630	9.40000000E+1	
744.628910	7.40000000E+1	
745.117190	7.60000000E+1	
745.605470	7.80000000E+1	
746.093750	7.40000000E+1	
746.58200	7.60000000E+1	
747.070310	8.40000000E+1	
747.558590	7.30000000E+1	
748.046880	8.10000000E+1	
748.535160	8.50000000E+1	
749.023440	7.50000000E+1	
749.511720	7.20000000E+1	
750.00	7.50000000E+1	
750.488280	7.40000000E+1	
750.976560	8.10000000E+1	
751.464840	9.30000000E+1	
751.953130	7.00000000E+1	
752.441410	6.10000000E+1	
752.929690	6.50000000E+1	
753.41800	6.40000000E+1	
753.906250	1.03000000E+2	
754.394530	6.80000000E+1	
754.882810	6.50000000E+1	
755.371090	5.90000000E+1	
755.859380	7.80000000E+1	
756.347660	7.60000000E+1	
756.835940	8.00000000E+1	
757.324220	7.70000000E+1	
757.812500	8.90000000E+1	
758.300780	8.10000000E+1	
758.789060	9.80000000E+1	
759.277340	5.70000000E+1	
759.765630	7.50000000E+1	
760.253910	6.80000000E+1	
760.742190	6.40000000E+1	
761.230470	7.80000000E+1	
761.718750	6.50000000E+1	
762.20700	7.50000000E+1	
762.695310	7.30000000E+1	
763.183590	8.20000000E+1	
763.671880	7.60000000E+1	
764.160160	8.40000000E+1	
764.648440	7.20000000E+1	
765.136720	7.70000000E+1	
765.62500	7.70000000E+1	
766.113280	5.90000000E+1	
766.601560	8.20000000E+1	
767.089840	7.10000000E+1	
767.578130	8.20000000E+1	
768.066410	7.50000000E+1	
768.554690	9.10000000E+1	
769.04300	8.70000000E+1	
769.531250	7.40000000E+1	
770.019530	8.30000000E+1	
770.507810	7.80000000E+1	
770.996090	8.40000000E+1	
771.484380	7.40000000E+1	
771.972660	9.10000000E+1	
772.460940	5.70000000E+1	
772.949220	6.30000000E+1	
773.437500	9.70000000E+1	
773.925780	7.30000000E+1	
774.414060	7.90000000E+1	
774.902340	7.20000000E+1	
775.390630	8.40000000E+1	
775.878910	6.90000000E+1	
776.367190	8.10000000E+1	
776.855470	6.90000000E+1	
777.343750	6.10000000E+1	
777.83200	6.20000000E+1	
778.320310	8.10000000E+1	
778.808590	8.40000000E+1	
779.296880	7.50000000E+1	
779.785160	6.70000000E+1	
780.273440	7.40000000E+1	
780.761720	8.20000000E+1	
781.2500	7.60000000E+1	
781.738280	7.60000000E+1	
782.226560	7.00000000E+1	
782.714840	7.90000000E+1	
783.203130	7.90000000E+1	
783.691410	7.00000000E+1	
784.179690	7.00000000E+1	
784.66800	7.70000000E+1	
785.156250	6.90000000E+1	
785.644530	8.00000000E+1	
786.132810	7.60000000E+1	
786.621090	7.70000000E+1	
787.109380	8.00000000E+1	
787.597660	6.80000000E+1	
788.085940	8.90000000E+1	
788.574220	7.00000000E+1	
789.062500	7.60000000E+1	
789.550780	7.10000000E+1	
790.039060	7.40000000E+1	
790.527340	8.10000000E+1	
791.015630	6.70000000E+1	
791.503910	8.10000000E+1	
791.992190	8.00000000E+1	
792.480470	7.40000000E+1	
792.968750	8.10000000E+1	
793.45700	7.60000000E+1	
793.945310	8.10000000E+1	
794.433590	7.80000000E+1	
794.921880	8.10000000E+1	
795.410160	7.80000000E+1	
795.898440	6.40000000E+1	
796.386720	8.10000000E+1	
796.87500	6.90000000E+1	
797.363280	6.10000000E+1	
797.851560	8.70000000E+1	
798.339840	5.90000000E+1	
798.828130	8.70000000E+1	
799.316410	8.20000000E+1	
799.804690	7.10000000E+1	
800.29300	7.80000000E+1	
800.781250	7.90000000E+1	
801.269530	7.00000000E+1	
801.757810	6.40000000E+1	
802.246090	8.70000000E+1	
802.734380	6.80000000E+1	
803.222660	7.50000000E+1	
803.710940	6.70000000E+1	
804.199220	6.20000000E+1	
804.687500	5.30000000E+1	
805.175780	7.60000000E+1	
805.664060	7.70000000E+1	
806.152340	5.50000000E+1	
806.640630	6.90000000E+1	
807.128910	8.40000000E+1	
807.617190	8.10000000E+1	
808.105470	7.30000000E+1	
808.593750	8.00000000E+1	
809.08200	6.50000000E+1	
809.570310	6.40000000E+1	
810.058590	6.40000000E+1	
810.546880	6.60000000E+1	
811.035160	7.40000000E+1	
811.523440	7.70000000E+1	
812.011720	8.00000000E+1	
812.500	6.60000000E+1	
812.988280	7.40000000E+1	
813.476560	8.70000000E+1	
813.964840	6.90000000E+1	
814.453130	5.40000000E+1	
814.941410	9.00000000E+1	
815.429690	7.00000000E+1	
815.91800	7.00000000E+1	
816.406250	7.30000000E+1	
816.894530	8.30000000E+1	
817.382810	8.60000000E+1	
817.871090	8.00000000E+1	
818.359380	8.60000000E+1	
818.847660	7.60000000E+1	
819.335940	7.20000000E+1	
819.824220	5.10000000E+1	
820.312500	6.20000000E+1	
820.800780	7.90000000E+1	
821.289060	7.40000000E+1	
821.777340	6.60000000E+1	
822.265630	8.00000000E+1	
822.753910	6.80000000E+1	
823.242190	6.70000000E+1	
823.730470	6.80000000E+1	
824.218750	7.40000000E+1	
824.70700	6.40000000E+1	
825.195310	6.40000000E+1	
825.683590	6.50000000E+1	
826.171880	8.20000000E+1	
826.660160	7.40000000E+1	
827.148440	8.00000000E+1	
827.636720	7.60000000E+1	
828.12500	8.00000000E+1	
828.613280	5.80000000E+1	
829.101560	6.60000000E+1	
829.589840	7.70000000E+1	
830.078130	6.70000000E+1	
830.566410	6.40000000E+1	
831.054690	6.80000000E+1	
831.54300	5.20000000E+1	
832.031250	6.50000000E+1	
832.519530	6.50000000E+1	
833.007810	7.60000000E+1	
833.496090	6.70000000E+1	
833.984380	6.80000000E+1	
834.472660	7.80000000E+1	
834.960940	5.80000000E+1	
835.449220	7.30000000E+1	
835.937500	4.80000000E+1	
836.425780	6.90000000E+1	
836.914060	8.40000000E+1	
837.402340	6.40000000E+1	
837.890630	7.90000000E+1	
838.378910	7.70000000E+1	
838.867190	7.30000000E+1	
839.355470	7.40000000E+1	
839.843750	6.50000000E+1	
840.33200	7.20000000E+1	
840.820310	7.70000000E+1	
841.308590	6.60000000E+1	
841.796880	7.40000000E+1	
842.285160	8.10000000E+1	
842.773440	6.10000000E+1	
843.261720	6.80000000E+1	
843.7500	6.80000000E+1	
844.238280	8.40000000E+1	
844.726560	6.40000000E+1	
845.214840	6.80000000E+1	
845.703130	7.50000000E+1	
846.191410	8.60000000E+1	
846.679690	9.10000000E+1	
847.16800	6.60000000E+1	
847.656250	6.40000000E+1	
848.144530	6.90000000E+1	
848.632810	8.10000000E+1	
849.121090	7.90000000E+1	
849.609380	6.10000000E+1	
850.097660	5.40000000E+1	
850.585940	7.70000000E+1	
851.074220	7.20000000E+1	
851.562500	7.10000000E+1	
852.050780	7.00000000E+1	
852.539060	6.20000000E+1	
853.027340	6.60000000E+1	
853.515630	6.10000000E+1	
854.003910	7.80000000E+1	
854.492190	7.30000000E+1	
854.980470	6.60000000E+1	
855.468750	5.60000000E+1	
855.95700	7.00000000E+1	
856.445310	6.30000000E+1	
856.933590	6.10000000E+1	
857.421880	6.30000000E+1	
857.910160	6.00000000E+1	
858.398440	6.20000000E+1	
858.886720	5.20000000E+1	
859.37500	6.30000000E+1	
859.863280	6.80000000E+1	
860.351560	6.40000000E+1	
860.839840	5.60000000E+1	
861.328130	6.90000000E+1	
861.816410	7.80000000E+1	
862.304690	6.60000000E+1	
862.79300	7.70000000E+1	
863.281250	6.70000000E+1	
863.769530	7.10000000E+1	
864.257810	7.50000000E+1	
864.746090	6.80000000E+1	
865.234380	7.30000000E+1	
865.722660	7.20000000E+1	
866.210940	7.80000000E+1	
866.699220	6.70000000E+1	
867.187500	6.50000000E+1	
867.675780	7.10000000E+1	
868.164060	5.30000000E+1	
868.652340	6.00000000E+1	
869.140630	7.90000000E+1	
869.628910	4.80000000E+1	
870.117190	7.00000000E+1	
870.605470	6.20000000E+1	
871.093750	8.00000000E+1	
871.58200	5.30000000E+1	
872.070310	6.70000000E+1	
872.558590	5.90000000E+1	
873.046880	6.20000000E+1	
873.535160	5.50000000E+1	
874.023440	5.40000000E+1	
874.511720	6.50000000E+1	
875.00	7.60000000E+1	
875.488280	7.80000000E+1	
875.976560	7.10000000E+1	
876.464840	6.60000000E+1	
876.953130	7.00000000E+1	
877.441410	6.70000000E+1	
877.929690	7.50000000E+1	
878.41800	7.60000000E+1	
878.906250	6.50000000E+1	
879.394530	7.40000000E+1	
879.882810	6.80000000E+1	
880.371090	6.10000000E+1	
880.859380	5.40000000E+1	
881.347660	8.20000000E+1	
881.835940	6.60000000E+1	
882.324220	5.30000000E+1	
882.812500	8.10000000E+1	
883.300780	6.90000000E+1	
883.789060	7.20000000E+1	
884.277340	6.90000000E+1	
884.765630	7.40000000E+1	
885.253910	7.80000000E+1	
885.742190	6.20000000E+1	
886.230470	5.00000000E+1	
886.718750	5.40000000E+1	
887.20700	4.50000000E+1	
887.695310	6.90000000E+1	
888.183590	6.00000000E+1	
888.671880	6.70000000E+1	
889.160160	6.70000000E+1	
889.648440	6.40000000E+1	
890.136720	7.20000000E+1	
890.62500	6.80000000E+1	
891.113280	6.90000000E+1	
891.601560	5.40000000E+1	
892.089840	6.20000000E+1	
892.578130	8.70000000E+1	
893.066410	7.10000000E+1	
893.554690	8.00000000E+1	
894.04300	5.80000000E+1	
894.531250	8.10000000E+1	
895.019530	5.20000000E+1	
895.507810	7.30000000E+1	
895.996090	6.70000000E+1	
896.484380	7.20000000E+1	
896.972660	6.10000000E+1	
897.460940	6.30000000E+1	
897.949220	4.90000000E+1	
898.437500	6.50000000E+1	
898.925780	5.80000000E+1	
899.414060	5.70000000E+1	
899.902340	7.50000000E+1	
900.390630	5.00000000E+1	
900.878910	7.60000000E+1	
901.367190	5.30000000E+1	
901.855470	6.50000000E+1	
902.343750	6.10000000E+1	
902.83200	6.00000000E+1	
903.320310	6.80000000E+1	
903.808590	6.20000000E+1	
904.296880	6.30000000E+1	
904.785160	5.60000000E+1	
905.273440	7.60000000E+1	
905.761720	6.30000000E+1	
906.2500	6.40000000E+1	
906.738280	6.20000000E+1	
907.226560	6.50000000E+1	
907.714840	6.40000000E+1	
908.203130	6.60000000E+1	
908.691410	6.70000000E+1	
909.179690	6.50000000E+1	
909.66800	5.50000000E+1	
910.156250	6.30000000E+1	
910.644530	5.80000000E+1	
911.132810	6.10000000E+1	
911.621090	5.30000000E+1	
912.109380	5.80000000E+1	
912.597660	5.60000000E+1	
913.085940	6.00000000E+1	
913.574220	5.40000000E+1	
914.062500	6.90000000E+1	
914.550780	6.90000000E+1	
915.039060	5.90000000E+1	
915.527340	7.40000000E+1	
916.015630	7.20000000E+1	
916.503910	6.00000000E+1	
916.992190	5.70000000E+1	
917.480470	6.70000000E+1	
917.968750	6.30000000E+1	
918.45700	6.70000000E+1	
918.945310	5.40000000E+1	
919.433590	6.30000000E+1	
919.921880	6.20000000E+1	
920.410160	6.60000000E+1	
920.898440	6.50000000E+1	
921.386720	6.50000000E+1	
921.87500	6.70000000E+1	
922.363280	5.00000000E+1	
922.851560	5.10000000E+1	
923.339840	6.30000000E+1	
923.828130	6.00000000E+1	
924.316410	6.80000000E+1	
924.804690	6.10000000E+1	
925.29300	6.70000000E+1	
925.781250	6.60000000E+1	
926.269530	6.90000000E+1	
926.757810	5.40000000E+1	
927.246090	6.50000000E+1	
927.734380	8.40000000E+1	
928.222660	6.20000000E+1	
928.710940	5.10000000E+1	
929.199220	5.90000000E+1	
929.687500	6.60000000E+1	
930.175780	6.80000000E+1	
930.664060	5.90000000E+1	
931.152340	6.00000000E+1	
931.640630	6.10000000E+1	
932.128910	5.30000000E+1	
932.617190	6.20000000E+1	
933.105470	5.20000000E+1	
933.593750	6.60000000E+1	
934.08200	5.80000000E+1	
934.570310	6.80000000E+1	
935.058590	7.20000000E+1	
935.546880	5.50000000E+1	
936.035160	4.90000000E+1	
936.523440	6.40000000E+1	
937.011720	6.10000000E+1	
937.500	6.50000000E+1	
937.988280	5.50000000E+1	
938.476560	7.10000000E+1	
938.964840	4.50000000E+1	
939.453130	5.00000000E+1	
939.941410	5.90000000E+1	
940.429690	5.70000000E+1	
940.91800	5.50000000E+1	
941.406250	5.50000000E+1	
941.894530	5.30000000E+1	
942.382810	6.00000000E+1	
942.871090	7.00000000E+1	
943.359380	5.90000000E+1	
943.847660	6.60000000E+1	
944.335940	6.20000000E+1	
944.824220	6.10000000E+1	
945.312500	5.40000000E+1	
945.800780	6.30000000E+1	
946.289060	6.60000000E+1	
946.777340	6.80000000E+1	
947.265630	5.90000000E+1	
947.753910	5.70000000E+1	
948.242190	5.80000000E+1	
948.730470	6.00000000E+1	
949.218750	6.80000000E+1	
949.70700	6.10000000E+1	
950.195310	6.20000000E+1	
950.683590	6.10000000E+1	
951.171880	6.80000000E+1	
951.660160	5.30000000E+1	
952.148440	7.50000000E+1	
952.636720	5.90000000E+1	
953.12500	5.70000000E+1	
953.613280	5.70000000E+1	
954.101560	7.00000000E+1	
954.589840	5.80000000E+1	
955.078130	5.10000000E+1	
955.566410	5.20000000E+1	
956.054690	5.90000000E+1	
956.54300	6.20000000E+1	
957.031250	6.40000000E+1	
957.519530	4.90000000E+1	
958.007810	5.80000000E+1	
958.496090	6.20000000E+1	
958.984380	6.20000000E+1	
959.472660	5.30000000E+1	
959.960940	4.90000000E+1	
960.449220	6.50000000E+1	
960.937500	6.30000000E+1	
961.425780	5.40000000E+1	
961.914060	5.90000000E+1	
962.402340	5.70000000E+1	
962.890630	6.60000000E+1	
963.378910	5.00000000E+1	
963.867190	4.90000000E+1	
964.355470	6.40000000E+1	
964.843750	7.00000000E+1	
965.33200	4.70000000E+1	
965.820310	5.30000000E+1	
966.308590	7.10000000E+1	
966.796880	4.50000000E+1	
967.285160	6.10000000E+1	
967.773440	6.60000000E+1	
968.261720	5.70000000E+1	
968.7500	6.00000000E+1	
969.238280	5.80000000E+1	
969.726560	5.80000000E+1	
970.214840	5.80000000E+1	
970.703130	4.80000000E+1	
971.191410	5.50000000E+1	
971.679690	6.30000000E+1	
972.16800	5.40000000E+1	
972.656250	5.90000000E+1	
973.144530	6.00000000E+1	
973.632810	6.10000000E+1	
974.121090	6.20000000E+1	
974.609380	6.00000000E+1	
975.097660	5.20000000E+1	
975.585940	6.90000000E+1	
976.074220	6.70000000E+1	
976.562500	6.90000000E+1	
977.050780	6.60000000E+1	
977.539060	5.30000000E+1	
978.027340	7.60000000E+1	
978.515630	4.50000000E+1	
979.003910	5.00000000E+1	
979.492190	7.00000000E+1	
979.980470	6.20000000E+1	
980.468750	7.40000000E+1	
980.95700	5.60000000E+1	
981.445310	4.60000000E+1	
981.933590	5.80000000E+1	
982.421880	5.60000000E+1	
982.910160	4.80000000E+1	
983.398440	5.00000000E+1	
983.886720	6.00000000E+1	
984.37500	4.90000000E+1	
984.863280	5.10000000E+1	
985.351560	5.80000000E+1	
985.839840	6.30000000E+1	
986.328130	4.90000000E+1	
986.816410	6.20000000E+1	
987.304690	6.90000000E+1	
987.79300	5.10000000E+1	
988.281250	4.00000000E+1	
988.769530	4.40000000E+1	
989.257810	3.90000000E+1	
989.746090	5.60000000E+1	
990.234380	5.80000000E+1	
990.722660	6.20000000E+1	
991.210940	5.00000000E+1	
991.699220	4.90000000E+1	
992.187500	5.20000000E+1	
992.675780	6.30000000E+1	
993.164060	3.70000000E+1	
993.652340	5.00000000E+1	
994.140630	6.60000000E+1	
994.628910	6.40000000E+1	
995.117190	5.00000000E+1	
995.605470	5.20000000E+1	
996.093750	4.20000000E+1	
996.58200	5.10000000E+1	
997.070310	5.50000000E+1	
997.558590	7.10000000E+1	
998.046880	5.40000000E+1	
998.535160	6.80000000E+1	
999.023440	5.30000000E+1	
999.511720	5.40000000E+1	
